Chan,Energy,Counts
0,   -88.74,0
1,   -86.18,0
2,   -83.61,0
3,   -81.05,0
4,   -78.48,0
5,   -75.92,0
6,   -73.35,0
7,   -70.79,0
8,   -68.23,0
9,   -65.66,0
10,   -63.10,2
11,   -60.53,1
12,   -57.97,84
13,   -55.40,2739
14,   -52.84,2223
15,   -50.27,1378
16,   -47.71,980
17,   -45.15,736
18,   -42.58,641
19,   -40.02,639
20,   -37.45,613
21,   -34.89,621
22,   -32.32,562
23,   -29.76,576
24,   -27.19,573
25,   -24.63,620
26,   -22.06,671
27,   -19.50,739
28,   -16.94,785
29,   -14.37,782
30,   -11.81,741
31,    -9.24,792
32,    -6.68,750
33,    -4.11,660
34,    -1.55,706
35,     1.02,666
36,     3.58,575
37,     6.15,571
38,     8.71,511
39,    11.27,493
40,    13.84,492
41,    16.40,575
42,    18.97,499
43,    21.53,574
44,    24.10,513
45,    26.66,499
46,    29.23,519
47,    31.79,511
48,    34.35,501
49,    36.92,485
50,    39.48,520
51,    42.05,522
52,    44.61,517
53,    47.18,485
54,    49.74,486
55,    52.31,504
56,    54.87,484
57,    57.44,547
58,    60.00,518
59,    62.56,499
60,    65.13,504
61,    67.69,501
62,    70.26,476
63,    72.82,517
64,    75.39,487
65,    77.95,514
66,    80.52,523
67,    83.08,514
68,    85.65,507
69,    88.21,530
70,    90.77,564
71,    93.34,529
72,    95.90,530
73,    98.47,555
74,   101.03,628
75,   103.60,581
76,   106.16,602
77,   108.73,648
78,   111.29,621
79,   113.85,668
80,   116.42,664
81,   118.98,734
82,   121.55,759
83,   124.11,748
84,   126.68,801
85,   129.24,739
86,   131.81,712
87,   134.37,744
88,   136.94,718
89,   139.50,717
90,   142.06,733
91,   144.63,728
92,   147.19,684
93,   149.76,688
94,   152.32,705
95,   154.89,706
96,   157.45,701
97,   160.02,630
98,   162.58,675
99,   165.15,688
100,   167.71,679
101,   170.27,611
102,   172.84,653
103,   175.40,605
104,   177.97,602
105,   180.53,635
106,   183.10,572
107,   185.66,560
108,   188.23,580
109,   190.79,562
110,   193.35,550
111,   195.92,606
112,   198.48,552
113,   201.05,567
114,   203.61,541
115,   206.18,549
116,   208.74,546
117,   211.31,516
118,   213.87,502
119,   216.44,480
120,   219.00,524
121,   221.56,489
122,   224.13,521
123,   226.69,476
124,   229.26,508
125,   231.82,476
126,   234.39,515
127,   236.95,459
128,   239.52,499
129,   242.08,503
130,   244.65,494
131,   247.21,456
132,   249.77,483
133,   252.34,455
134,   254.90,451
135,   257.47,480
136,   260.03,465
137,   262.60,481
138,   265.16,495
139,   267.73,438
140,   270.29,430
141,   272.85,406
142,   275.42,403
143,   277.98,444
144,   280.55,444
145,   283.11,423
146,   285.68,401
147,   288.24,464
148,   290.81,424
149,   293.37,425
150,   295.94,450
151,   298.50,423
152,   301.06,394
153,   303.63,440
154,   306.19,452
155,   308.76,423
156,   311.32,420
157,   313.89,434
158,   316.45,436
159,   319.02,391
160,   321.58,433
161,   324.15,418
162,   326.71,407
163,   329.27,416
164,   331.84,406
165,   334.40,426
166,   336.97,387
167,   339.53,429
168,   342.10,429
169,   344.66,483
170,   347.23,457
171,   349.79,422
172,   352.35,412
173,   354.92,428
174,   357.48,438
175,   360.05,422
176,   362.61,456
177,   365.18,447
178,   367.74,444
179,   370.31,422
180,   372.87,450
181,   375.44,420
182,   378.00,463
183,   380.56,428
184,   383.13,423
185,   385.69,445
186,   388.26,433
187,   390.82,432
188,   393.39,402
189,   395.95,470
190,   398.52,462
191,   401.08,428
192,   403.65,454
193,   406.21,417
194,   408.77,374
195,   411.34,377
196,   413.90,389
197,   416.47,380
198,   419.03,360
199,   421.60,337
200,   424.16,284
201,   426.73,269
202,   429.29,247
203,   431.85,283
204,   434.42,267
205,   436.98,234
206,   439.55,211
207,   442.11,201
208,   444.68,204
209,   447.24,185
210,   449.81,137
211,   452.37,156
212,   454.94,135
213,   457.50,140
214,   460.06,122
215,   462.63,103
216,   465.19,125
217,   467.76,83
218,   470.32,105
219,   472.89,75
220,   475.45,85
221,   478.02,79
222,   480.58,74
223,   483.15,71
224,   485.71,69
225,   488.27,72
226,   490.84,75
227,   493.40,60
228,   495.97,67
229,   498.53,54
230,   501.10,56
231,   503.66,62
232,   506.23,50
233,   508.79,54
234,   511.35,45
235,   513.92,47
236,   516.48,43
237,   519.05,45
238,   521.61,54
239,   524.18,53
240,   526.74,46
241,   529.31,53
242,   531.87,48
243,   534.44,45
244,   537.00,56
245,   539.56,54
246,   542.13,46
247,   544.69,59
248,   547.26,56
249,   549.82,55
250,   552.39,78
251,   554.95,78
252,   557.52,89
253,   560.08,83
254,   562.65,107
255,   565.21,122
256,   567.77,144
257,   570.34,160
258,   572.90,189
259,   575.47,224
260,   578.03,249
261,   580.60,281
262,   583.16,324
263,   585.73,380
264,   588.29,445
265,   590.85,508
266,   593.42,586
267,   595.98,630
268,   598.55,714
269,   601.11,837
270,   603.68,906
271,   606.24,968
272,   608.81,1110
273,   611.37,1202
274,   613.94,1298
275,   616.50,1407
276,   619.06,1518
277,   621.63,1546
278,   624.19,1613
279,   626.76,1717
280,   629.32,1719
281,   631.89,1800
282,   634.45,1788
283,   637.02,1761
284,   639.58,1764
285,   642.15,1754
286,   644.71,1770
287,   647.27,1704
288,   649.84,1629
289,   652.40,1531
290,   654.97,1477
291,   657.53,1376
292,   660.10,1350
293,   662.66,1175
294,   665.23,1073
295,   667.79,998
296,   670.35,912
297,   672.92,764
298,   675.48,721
299,   678.05,590
300,   680.61,559
301,   683.18,463
302,   685.74,384
303,   688.31,349
304,   690.87,350
305,   693.44,251
306,   696.00,224
307,   698.56,186
308,   701.13,176
309,   703.69,134
310,   706.26,127
311,   708.82,105
312,   711.39,67
313,   713.95,62
314,   716.52,61
315,   719.08,44
316,   721.65,48
317,   724.21,24
318,   726.77,28
319,   729.34,25
320,   731.90,22
321,   734.47,26
322,   737.03,10
323,   739.60,13
324,   742.16,10
325,   744.73,11
326,   747.29,14
327,   749.85,13
328,   752.42,9
329,   754.98,10
330,   757.55,5
331,   760.11,2
332,   762.68,8
333,   765.24,6
334,   767.81,4
335,   770.37,4
336,   772.94,6
337,   775.50,4
338,   778.06,2
339,   780.63,5
340,   783.19,7
341,   785.76,3
342,   788.32,8
343,   790.89,1
344,   793.45,6
345,   796.02,5
346,   798.58,6
347,   801.15,5
348,   803.71,5
349,   806.27,3
350,   808.84,5
351,   811.40,4
352,   813.97,2
353,   816.53,10
354,   819.10,6
355,   821.66,2
356,   824.23,3
357,   826.79,4
358,   829.35,8
359,   831.92,3
360,   834.48,2
361,   837.05,6
362,   839.61,6
363,   842.18,2
364,   844.74,1
365,   847.31,3
366,   849.87,7
367,   852.44,5
368,   855.00,5
369,   857.56,2
370,   860.13,0
371,   862.69,6
372,   865.26,3
373,   867.82,2
374,   870.39,3
375,   872.95,3
376,   875.52,4
377,   878.08,7
378,   880.65,2
379,   883.21,2
380,   885.77,8
381,   888.34,4
382,   890.90,6
383,   893.47,5
384,   896.03,6
385,   898.60,3
386,   901.16,7
387,   903.73,4
388,   906.29,3
389,   908.85,5
390,   911.42,2
391,   913.98,4
392,   916.55,1
393,   919.11,0
394,   921.68,3
395,   924.24,4
396,   926.81,0
397,   929.37,4
398,   931.94,4
399,   934.50,2
400,   937.06,4
401,   939.63,2
402,   942.19,1
403,   944.76,2
404,   947.32,3
405,   949.89,3
406,   952.45,2
407,   955.02,3
408,   957.58,1
409,   960.15,4
410,   962.71,1
411,   965.27,1
412,   967.84,1
413,   970.40,2
414,   972.97,4
415,   975.53,4
416,   978.10,3
417,   980.66,3
418,   983.23,4
419,   985.79,3
420,   988.35,3
421,   990.92,2
422,   993.48,3
423,   996.05,2
424,   998.61,4
425,  1001.18,3
426,  1003.74,2
427,  1006.31,0
428,  1008.87,4
429,  1011.44,2
430,  1014.00,1
431,  1016.56,1
432,  1019.13,3
433,  1021.69,5
434,  1024.26,3
435,  1026.82,6
436,  1029.39,1
437,  1031.95,1
438,  1034.52,1
439,  1037.08,2
440,  1039.65,2
441,  1042.21,2
442,  1044.77,2
443,  1047.34,2
444,  1049.90,0
445,  1052.47,1
446,  1055.03,3
447,  1057.60,2
448,  1060.16,3
449,  1062.73,3
450,  1065.29,2
451,  1067.85,5
452,  1070.42,2
453,  1072.98,1
454,  1075.55,1
455,  1078.11,2
456,  1080.68,2
457,  1083.24,4
458,  1085.81,4
459,  1088.37,2
460,  1090.94,4
461,  1093.50,3
462,  1096.06,2
463,  1098.63,2
464,  1101.19,1
465,  1103.76,2
466,  1106.32,1
467,  1108.89,3
468,  1111.45,1
469,  1114.02,1
470,  1116.58,2
471,  1119.15,3
472,  1121.71,3
473,  1124.27,4
474,  1126.84,4
475,  1129.40,1
476,  1131.97,8
477,  1134.53,2
478,  1137.10,0
479,  1139.66,0
480,  1142.23,2
481,  1144.79,6
482,  1147.35,3
483,  1149.92,3
484,  1152.48,0
485,  1155.05,1
486,  1157.61,3
487,  1160.18,2
488,  1162.74,3
489,  1165.31,1
490,  1167.87,2
491,  1170.44,3
492,  1173.00,4
493,  1175.56,2
494,  1178.13,1
495,  1180.69,3
496,  1183.26,0
497,  1185.82,4
498,  1188.39,2
499,  1190.95,3
500,  1193.52,2
501,  1196.08,2
502,  1198.65,3
503,  1201.21,0
504,  1203.77,4
505,  1206.34,3
506,  1208.90,1
507,  1211.47,1
508,  1214.03,1
509,  1216.60,0
510,  1219.16,3
511,  1221.73,0
512,  1224.29,0
513,  1226.85,1
514,  1229.42,1
515,  1231.98,2
516,  1234.55,2
517,  1237.11,1
518,  1239.68,3
519,  1242.24,0
520,  1244.81,3
521,  1247.37,0
522,  1249.94,0
523,  1252.50,0
524,  1255.06,0
525,  1257.63,1
526,  1260.19,2
527,  1262.76,2
528,  1265.32,0
529,  1267.89,1
530,  1270.45,0
531,  1273.02,0
532,  1275.58,4
533,  1278.15,1
534,  1280.71,2
535,  1283.27,1
536,  1285.84,0
537,  1288.40,1
538,  1290.97,4
539,  1293.53,2
540,  1296.10,3
541,  1298.66,3
542,  1301.23,1
543,  1303.79,2
544,  1306.35,1
545,  1308.92,0
546,  1311.48,1
547,  1314.05,3
548,  1316.61,2
549,  1319.18,2
550,  1321.74,3
551,  1324.31,2
552,  1326.87,0
553,  1329.44,2
554,  1332.00,2
555,  1334.56,2
556,  1337.13,4
557,  1339.69,1
558,  1342.26,0
559,  1344.82,1
560,  1347.39,2
561,  1349.95,1
562,  1352.52,1
563,  1355.08,2
564,  1357.65,0
565,  1360.21,1
566,  1362.77,0
567,  1365.34,4
568,  1367.90,0
569,  1370.47,1
570,  1373.03,0
571,  1375.60,1
572,  1378.16,2
573,  1380.73,2
574,  1383.29,1
575,  1385.85,1
576,  1388.42,1
577,  1390.98,0
578,  1393.55,1
579,  1396.11,0
580,  1398.68,1
581,  1401.24,0
582,  1403.81,2
583,  1406.37,0
584,  1408.94,1
585,  1411.50,0
586,  1414.06,2
587,  1416.63,3
588,  1419.19,2
589,  1421.76,1
590,  1424.32,0
591,  1426.89,0
592,  1429.45,1
593,  1432.02,1
594,  1434.58,0
595,  1437.15,1
596,  1439.71,1
597,  1442.27,0
598,  1444.84,2
599,  1447.40,0
600,  1449.97,1
601,  1452.53,0
602,  1455.10,0
603,  1457.66,0
604,  1460.23,4
605,  1462.79,0
606,  1465.35,3
607,  1467.92,1
608,  1470.48,2
609,  1473.05,1
610,  1475.61,2
611,  1478.18,0
612,  1480.74,0
613,  1483.31,1
614,  1485.87,0
615,  1488.44,1
616,  1491.00,0
617,  1493.56,0
618,  1496.13,0
619,  1498.69,0
620,  1501.26,2
621,  1503.82,1
622,  1506.39,0
623,  1508.95,0
624,  1511.52,0
625,  1514.08,0
626,  1516.65,1
627,  1519.21,0
628,  1521.77,0
629,  1524.34,0
630,  1526.90,0
631,  1529.47,0
632,  1532.03,1
633,  1534.60,0
634,  1537.16,1
635,  1539.73,0
636,  1542.29,1
637,  1544.85,0
638,  1547.42,0
639,  1549.98,0
640,  1552.55,0
641,  1555.11,0
642,  1557.68,0
643,  1560.24,0
644,  1562.81,0
645,  1565.37,1
646,  1567.94,0
647,  1570.50,1
648,  1573.06,0
649,  1575.63,0
650,  1578.19,0
651,  1580.76,0
652,  1583.32,0
653,  1585.89,0
654,  1588.45,0
655,  1591.02,1
656,  1593.58,0
657,  1596.15,0
658,  1598.71,1
659,  1601.27,0
660,  1603.84,0
661,  1606.40,2
662,  1608.97,0
663,  1611.53,0
664,  1614.10,1
665,  1616.66,0
666,  1619.23,0
667,  1621.79,0
668,  1624.35,0
669,  1626.92,0
670,  1629.48,0
671,  1632.05,0
672,  1634.61,0
673,  1637.18,0
674,  1639.74,0
675,  1642.31,0
676,  1644.87,0
677,  1647.44,1
678,  1650.00,0
679,  1652.56,0
680,  1655.13,0
681,  1657.69,0
682,  1660.26,0
683,  1662.82,0
684,  1665.39,1
685,  1667.95,2
686,  1670.52,0
687,  1673.08,1
688,  1675.65,0
689,  1678.21,0
690,  1680.77,0
691,  1683.34,1
692,  1685.90,1
693,  1688.47,0
694,  1691.03,0
695,  1693.60,0
696,  1696.16,1
697,  1698.73,0
698,  1701.29,0
699,  1703.85,0
700,  1706.42,3
701,  1708.98,0
702,  1711.55,0
703,  1714.11,0
704,  1716.68,0
705,  1719.24,0
706,  1721.81,0
707,  1724.37,0
708,  1726.94,0
709,  1729.50,0
710,  1732.06,0
711,  1734.63,0
712,  1737.19,0
713,  1739.76,0
714,  1742.32,0
715,  1744.89,0
716,  1747.45,0
717,  1750.02,0
718,  1752.58,1
719,  1755.15,0
720,  1757.71,1
721,  1760.27,0
722,  1762.84,0
723,  1765.40,0
724,  1767.97,0
725,  1770.53,0
726,  1773.10,0
727,  1775.66,0
728,  1778.23,0
729,  1780.79,0
730,  1783.35,0
731,  1785.92,0
732,  1788.48,0
733,  1791.05,0
734,  1793.61,0
735,  1796.18,0
736,  1798.74,0
737,  1801.31,0
738,  1803.87,0
739,  1806.44,0
740,  1809.00,0
741,  1811.56,1
742,  1814.13,0
743,  1816.69,1
744,  1819.26,0
745,  1821.82,0
746,  1824.39,0
747,  1826.95,0
748,  1829.52,0
749,  1832.08,0
750,  1834.65,0
751,  1837.21,0
752,  1839.77,0
753,  1842.34,0
754,  1844.90,0
755,  1847.47,1
756,  1850.03,0
757,  1852.60,0
758,  1855.16,0
759,  1857.73,0
760,  1860.29,1
761,  1862.85,0
762,  1865.42,0
763,  1867.98,0
764,  1870.55,0
765,  1873.11,0
766,  1875.68,0
767,  1878.24,0
768,  1880.81,0
769,  1883.37,0
770,  1885.94,0
771,  1888.50,1
772,  1891.06,0
773,  1893.63,1
774,  1896.19,0
775,  1898.76,0
776,  1901.32,0
777,  1903.89,0
778,  1906.45,0
779,  1909.02,0
780,  1911.58,1
781,  1914.15,0
782,  1916.71,1
783,  1919.27,0
784,  1921.84,0
785,  1924.40,0
786,  1926.97,0
787,  1929.53,0
788,  1932.10,0
789,  1934.66,0
790,  1937.23,0
791,  1939.79,0
792,  1942.35,0
793,  1944.92,0
794,  1947.48,1
795,  1950.05,1
796,  1952.61,0
797,  1955.18,0
798,  1957.74,0
799,  1960.31,0
800,  1962.87,0
801,  1965.44,0
802,  1968.00,0
803,  1970.56,0
804,  1973.13,0
805,  1975.69,0
806,  1978.26,0
807,  1980.82,0
808,  1983.39,0
809,  1985.95,0
810,  1988.52,0
811,  1991.08,0
812,  1993.65,0
813,  1996.21,0
814,  1998.77,0
815,  2001.34,0
816,  2003.90,0
817,  2006.47,0
818,  2009.03,1
819,  2011.60,0
820,  2014.16,0
821,  2016.73,0
822,  2019.29,0
823,  2021.85,0
824,  2024.42,0
825,  2026.98,0
826,  2029.55,0
827,  2032.11,0
828,  2034.68,0
829,  2037.24,0
830,  2039.81,0
831,  2042.37,1
832,  2044.94,0
833,  2047.50,0
834,  2050.06,0
835,  2052.63,1
836,  2055.19,0
837,  2057.76,0
838,  2060.32,0
839,  2062.89,0
840,  2065.45,0
841,  2068.02,0
842,  2070.58,0
843,  2073.15,0
844,  2075.71,1
845,  2078.27,0
846,  2080.84,0
847,  2083.40,0
848,  2085.97,0
849,  2088.53,0
850,  2091.10,1
851,  2093.66,0
852,  2096.23,0
853,  2098.79,1
854,  2101.35,0
855,  2103.92,0
856,  2106.48,0
857,  2109.05,0
858,  2111.61,0
859,  2114.18,0
860,  2116.74,0
861,  2119.31,0
862,  2121.87,1
863,  2124.44,0
864,  2127.00,0
865,  2129.56,0
866,  2132.13,0
867,  2134.69,0
868,  2137.26,1
869,  2139.82,0
870,  2142.39,0
871,  2144.95,0
872,  2147.52,0
873,  2150.08,0
874,  2152.65,0
875,  2155.21,0
876,  2157.77,0
877,  2160.34,0
878,  2162.90,0
879,  2165.47,0
880,  2168.03,0
881,  2170.60,0
882,  2173.16,0
883,  2175.73,0
884,  2178.29,0
885,  2180.85,0
886,  2183.42,0
887,  2185.98,1
888,  2188.55,0
889,  2191.11,0
890,  2193.68,0
891,  2196.24,0
892,  2198.81,0
893,  2201.37,0
894,  2203.94,0
895,  2206.50,1
896,  2209.06,0
897,  2211.63,0
898,  2214.19,0
899,  2216.76,0
900,  2219.32,1
901,  2221.89,0
902,  2224.45,1
903,  2227.02,0
904,  2229.58,0
905,  2232.15,0
906,  2234.71,0
907,  2237.27,0
908,  2239.84,0
909,  2242.40,0
910,  2244.97,0
911,  2247.53,0
912,  2250.10,0
913,  2252.66,0
914,  2255.23,1
915,  2257.79,0
916,  2260.35,0
917,  2262.92,0
918,  2265.48,0
919,  2268.05,0
920,  2270.61,1
921,  2273.18,0
922,  2275.74,0
923,  2278.31,0
924,  2280.87,0
925,  2283.44,0
926,  2286.00,0
927,  2288.56,0
928,  2291.13,0
929,  2293.69,1
930,  2296.26,0
931,  2298.82,0
932,  2301.39,0
933,  2303.95,0
934,  2306.52,0
935,  2309.08,0
936,  2311.65,0
937,  2314.21,0
938,  2316.77,0
939,  2319.34,0
940,  2321.90,0
941,  2324.47,0
942,  2327.03,0
943,  2329.60,0
944,  2332.16,0
945,  2334.73,0
946,  2337.29,0
947,  2339.85,0
948,  2342.42,0
949,  2344.98,0
950,  2347.55,0
951,  2350.11,0
952,  2352.68,0
953,  2355.24,0
954,  2357.81,1
955,  2360.37,0
956,  2362.94,0
957,  2365.50,0
958,  2368.06,0
959,  2370.63,0
960,  2373.19,0
961,  2375.76,0
962,  2378.32,0
963,  2380.89,0
964,  2383.45,0
965,  2386.02,0
966,  2388.58,0
967,  2391.15,1
968,  2393.71,0
969,  2396.27,0
970,  2398.84,0
971,  2401.40,0
972,  2403.97,0
973,  2406.53,0
974,  2409.10,0
975,  2411.66,0
976,  2414.23,0
977,  2416.79,0
978,  2419.35,0
979,  2421.92,0
980,  2424.48,0
981,  2427.05,0
982,  2429.61,0
983,  2432.18,0
984,  2434.74,0
985,  2437.31,0
986,  2439.87,0
987,  2442.44,0
988,  2445.00,0
989,  2447.56,0
990,  2450.13,0
991,  2452.69,1
992,  2455.26,0
993,  2457.82,0
994,  2460.39,0
995,  2462.95,0
996,  2465.52,0
997,  2468.08,1
998,  2470.65,0
999,  2473.21,0
1000,  2475.77,0
1001,  2478.34,0
1002,  2480.90,0
1003,  2483.47,0
1004,  2486.03,0
1005,  2488.60,0
1006,  2491.16,0
1007,  2493.73,0
1008,  2496.29,0
1009,  2498.85,0
1010,  2501.42,0
1011,  2503.98,0
1012,  2506.55,0
1013,  2509.11,0
1014,  2511.68,0
1015,  2514.24,0
1016,  2516.81,0
1017,  2519.37,0
1018,  2521.94,0
1019,  2524.50,0
1020,  2527.06,0
1021,  2529.63,1
1022,  2532.19,0
1023,  2534.76,0
