Spectrum Name:,
Description:,
Student ID:,
Detector Used:,
Comments:,
Acquisition Mode:,PHA
High Voltage:,550
Conversion Gain:,1024
Coarse Gain:,4
Fine Gain:,1.78
ULD:,102.300000%
LLD:,2.000000%
Calibration Coefficients:,-88.74,2.565
Channels used to calibrate:,492,554
Energies used to calibrate:,1173,1332
Real Time Elapsed:,60.82
Live Time Elapsed:,60.00
Start Time:,Tuesday, January 21, 2025, 14:50:47
End Time:,Tuesday, January 21, 2025, 14:51:48

Channel Data:
Chan,Energy,Counts
0,   -88.74,0
1,   -86.18,0
2,   -83.61,0
3,   -81.05,0
4,   -78.48,0
5,   -75.92,0
6,   -73.35,0
7,   -70.79,0
8,   -68.23,0
9,   -65.66,0
10,   -63.10,0
11,   -60.53,0
12,   -57.97,2
13,   -55.40,126
14,   -52.84,162
15,   -50.27,164
16,   -47.71,189
17,   -45.15,177
18,   -42.58,155
19,   -40.02,164
20,   -37.45,156
21,   -34.89,140
22,   -32.32,162
23,   -29.76,186
24,   -27.19,168
25,   -24.63,197
26,   -22.06,196
27,   -19.50,182
28,   -16.94,215
29,   -14.37,242
30,   -11.81,228
31,    -9.24,226
32,    -6.68,220
33,    -4.11,203
34,    -1.55,197
35,     1.02,189
36,     3.58,183
37,     6.15,169
38,     8.71,166
39,    11.27,146
40,    13.84,144
41,    16.40,148
42,    18.97,137
43,    21.53,132
44,    24.10,141
45,    26.66,143
46,    29.23,137
47,    31.79,159
48,    34.35,173
49,    36.92,181
50,    39.48,143
51,    42.05,146
52,    44.61,147
53,    47.18,145
54,    49.74,139
55,    52.31,139
56,    54.87,148
57,    57.44,137
58,    60.00,162
59,    62.56,138
60,    65.13,143
61,    67.69,152
62,    70.26,153
63,    72.82,158
64,    75.39,141
65,    77.95,144
66,    80.52,146
67,    83.08,146
68,    85.65,131
69,    88.21,164
70,    90.77,160
71,    93.34,157
72,    95.90,115
73,    98.47,152
74,   101.03,136
75,   103.60,144
76,   106.16,152
77,   108.73,158
78,   111.29,164
79,   113.85,171
80,   116.42,161
81,   118.98,156
82,   121.55,173
83,   124.11,146
84,   126.68,148
85,   129.24,144
86,   131.81,191
87,   134.37,171
88,   136.94,183
89,   139.50,199
90,   142.06,204
91,   144.63,217
92,   147.19,204
93,   149.76,215
94,   152.32,225
95,   154.89,233
96,   157.45,185
97,   160.02,234
98,   162.58,235
99,   165.15,214
100,   167.71,205
101,   170.27,235
102,   172.84,212
103,   175.40,244
104,   177.97,229
105,   180.53,220
106,   183.10,212
107,   185.66,205
108,   188.23,225
109,   190.79,211
110,   193.35,192
111,   195.92,216
112,   198.48,173
113,   201.05,175
114,   203.61,190
115,   206.18,189
116,   208.74,193
117,   211.31,193
118,   213.87,188
119,   216.44,181
120,   219.00,179
121,   221.56,181
122,   224.13,201
123,   226.69,174
124,   229.26,172
125,   231.82,188
126,   234.39,161
127,   236.95,144
128,   239.52,168
129,   242.08,157
130,   244.65,161
131,   247.21,150
132,   249.77,186
133,   252.34,177
134,   254.90,193
135,   257.47,168
136,   260.03,165
137,   262.60,172
138,   265.16,160
139,   267.73,163
140,   270.29,149
141,   272.85,168
142,   275.42,167
143,   277.98,160
144,   280.55,160
145,   283.11,130
146,   285.68,134
147,   288.24,131
148,   290.81,163
149,   293.37,156
150,   295.94,143
151,   298.50,146
152,   301.06,122
153,   303.63,133
154,   306.19,135
155,   308.76,144
156,   311.32,126
157,   313.89,119
158,   316.45,117
159,   319.02,129
160,   321.58,120
161,   324.15,131
162,   326.71,114
163,   329.27,143
164,   331.84,122
165,   334.40,126
166,   336.97,130
167,   339.53,115
168,   342.10,126
169,   344.66,130
170,   347.23,112
171,   349.79,139
172,   352.35,123
173,   354.92,124
174,   357.48,127
175,   360.05,117
176,   362.61,112
177,   365.18,127
178,   367.74,110
179,   370.31,114
180,   372.87,101
181,   375.44,133
182,   378.00,114
183,   380.56,109
184,   383.13,136
185,   385.69,123
186,   388.26,109
187,   390.82,115
188,   393.39,122
189,   395.95,121
190,   398.52,123
191,   401.08,126
192,   403.65,116
193,   406.21,125
194,   408.77,100
195,   411.34,126
196,   413.90,111
197,   416.47,111
198,   419.03,111
199,   421.60,128
200,   424.16,122
201,   426.73,120
202,   429.29,100
203,   431.85,110
204,   434.42,125
205,   436.98,116
206,   439.55,118
207,   442.11,123
208,   444.68,122
209,   447.24,129
210,   449.81,121
211,   452.37,98
212,   454.94,84
213,   457.50,112
214,   460.06,125
215,   462.63,131
216,   465.19,120
217,   467.76,104
218,   470.32,126
219,   472.89,97
220,   475.45,112
221,   478.02,121
222,   480.58,119
223,   483.15,125
224,   485.71,127
225,   488.27,104
226,   490.84,116
227,   493.40,103
228,   495.97,115
229,   498.53,129
230,   501.10,103
231,   503.66,122
232,   506.23,107
233,   508.79,109
234,   511.35,116
235,   513.92,105
236,   516.48,112
237,   519.05,129
238,   521.61,116
239,   524.18,125
240,   526.74,106
241,   529.31,127
242,   531.87,118
243,   534.44,112
244,   537.00,105
245,   539.56,113
246,   542.13,105
247,   544.69,130
248,   547.26,109
249,   549.82,103
250,   552.39,101
251,   554.95,114
252,   557.52,107
253,   560.08,103
254,   562.65,126
255,   565.21,99
256,   567.77,117
257,   570.34,119
258,   572.90,119
259,   575.47,115
260,   578.03,99
261,   580.60,108
262,   583.16,119
263,   585.73,118
264,   588.29,126
265,   590.85,127
266,   593.42,119
267,   595.98,108
268,   598.55,120
269,   601.11,108
270,   603.68,111
271,   606.24,115
272,   608.81,135
273,   611.37,107
274,   613.94,126
275,   616.50,121
276,   619.06,119
277,   621.63,109
278,   624.19,129
279,   626.76,107
280,   629.32,113
281,   631.89,125
282,   634.45,101
283,   637.02,110
284,   639.58,108
285,   642.15,106
286,   644.71,110
287,   647.27,113
288,   649.84,115
289,   652.40,105
290,   654.97,129
291,   657.53,125
292,   660.10,129
293,   662.66,110
294,   665.23,127
295,   667.79,123
296,   670.35,116
297,   672.92,104
298,   675.48,117
299,   678.05,119
300,   680.61,120
301,   683.18,100
302,   685.74,127
303,   688.31,130
304,   690.87,116
305,   693.44,111
306,   696.00,95
307,   698.56,103
308,   701.13,102
309,   703.69,118
310,   706.26,112
311,   708.82,124
312,   711.39,125
313,   713.95,136
314,   716.52,121
315,   719.08,137
316,   721.65,120
317,   724.21,123
318,   726.77,122
319,   729.34,134
320,   731.90,136
321,   734.47,149
322,   737.03,122
323,   739.60,118
324,   742.16,118
325,   744.73,134
326,   747.29,107
327,   749.85,117
328,   752.42,120
329,   754.98,113
330,   757.55,118
331,   760.11,140
332,   762.68,131
333,   765.24,127
334,   767.81,119
335,   770.37,106
336,   772.94,131
337,   775.50,137
338,   778.06,128
339,   780.63,136
340,   783.19,114
341,   785.76,115
342,   788.32,143
343,   790.89,126
344,   793.45,136
345,   796.02,128
346,   798.58,119
347,   801.15,128
348,   803.71,148
349,   806.27,144
350,   808.84,128
351,   811.40,141
352,   813.97,161
353,   816.53,136
354,   819.10,148
355,   821.66,127
356,   824.23,139
357,   826.79,127
358,   829.35,133
359,   831.92,125
360,   834.48,154
361,   837.05,122
362,   839.61,137
363,   842.18,183
364,   844.74,160
365,   847.31,168
366,   849.87,163
367,   852.44,137
368,   855.00,165
369,   857.56,135
370,   860.13,136
371,   862.69,139
372,   865.26,154
373,   867.82,141
374,   870.39,130
375,   872.95,151
376,   875.52,134
377,   878.08,127
378,   880.65,125
379,   883.21,138
380,   885.77,143
381,   888.34,137
382,   890.90,156
383,   893.47,121
384,   896.03,147
385,   898.60,150
386,   901.16,126
387,   903.73,151
388,   906.29,133
389,   908.85,129
390,   911.42,121
391,   913.98,135
392,   916.55,134
393,   919.11,142
394,   921.68,147
395,   924.24,133
396,   926.81,132
397,   929.37,137
398,   931.94,126
399,   934.50,137
400,   937.06,133
401,   939.63,117
402,   942.19,139
403,   944.76,122
404,   947.32,115
405,   949.89,109
406,   952.45,125
407,   955.02,105
408,   957.58,121
409,   960.15,119
410,   962.71,100
411,   965.27,101
412,   967.84,93
413,   970.40,120
414,   972.97,121
415,   975.53,106
416,   978.10,91
417,   980.66,100
418,   983.23,101
419,   985.79,108
420,   988.35,92
421,   990.92,89
422,   993.48,105
423,   996.05,114
424,   998.61,97
425,  1001.18,97
426,  1003.74,113
427,  1006.31,99
428,  1008.87,97
429,  1011.44,107
430,  1014.00,95
431,  1016.56,95
432,  1019.13,96
433,  1021.69,83
434,  1024.26,86
435,  1026.82,100
436,  1029.39,75
437,  1031.95,77
438,  1034.52,70
439,  1037.08,90
440,  1039.65,81
441,  1042.21,107
442,  1044.77,100
443,  1047.34,82
444,  1049.90,104
445,  1052.47,94
446,  1055.03,91
447,  1057.60,88
448,  1060.16,91
449,  1062.73,85
450,  1065.29,92
451,  1067.85,91
452,  1070.42,97
453,  1072.98,79
454,  1075.55,79
455,  1078.11,110
456,  1080.68,86
457,  1083.24,92
458,  1085.81,103
459,  1088.37,104
460,  1090.94,113
461,  1093.50,123
462,  1096.06,128
463,  1098.63,115
464,  1101.19,129
465,  1103.76,138
466,  1106.32,137
467,  1108.89,130
468,  1111.45,125
469,  1114.02,151
470,  1116.58,177
471,  1119.15,180
472,  1121.71,177
473,  1124.27,193
474,  1126.84,177
475,  1129.40,226
476,  1131.97,212
477,  1134.53,186
478,  1137.10,221
479,  1139.66,242
480,  1142.23,239
481,  1144.79,229
482,  1147.35,244
483,  1149.92,247
484,  1152.48,252
485,  1155.05,230
486,  1157.61,246
487,  1160.18,234
488,  1162.74,231
489,  1165.31,217
490,  1167.87,215
491,  1170.44,205
492,  1173.00,183
493,  1175.56,184
494,  1178.13,179
495,  1180.69,174
496,  1183.26,162
497,  1185.82,139
498,  1188.39,134
499,  1190.95,129
500,  1193.52,110
501,  1196.08,106
502,  1198.65,100
503,  1201.21,77
504,  1203.77,80
505,  1206.34,78
506,  1208.90,67
507,  1211.47,60
508,  1214.03,62
509,  1216.60,68
510,  1219.16,67
511,  1221.73,49
512,  1224.29,43
513,  1226.85,47
514,  1229.42,57
515,  1231.98,65
516,  1234.55,59
517,  1237.11,50
518,  1239.68,59
519,  1242.24,69
520,  1244.81,57
521,  1247.37,72
522,  1249.94,75
523,  1252.50,69
524,  1255.06,80
525,  1257.63,93
526,  1260.19,97
527,  1262.76,103
528,  1265.32,104
529,  1267.89,119
530,  1270.45,124
531,  1273.02,134
532,  1275.58,131
533,  1278.15,148
534,  1280.71,155
535,  1283.27,154
536,  1285.84,163
537,  1288.40,178
538,  1290.97,165
539,  1293.53,147
540,  1296.10,167
541,  1298.66,195
542,  1301.23,174
543,  1303.79,179
544,  1306.35,176
545,  1308.92,176
546,  1311.48,163
547,  1314.05,156
548,  1316.61,160
549,  1319.18,177
550,  1321.74,160
551,  1324.31,126
552,  1326.87,150
553,  1329.44,135
554,  1332.00,114
555,  1334.56,151
556,  1337.13,138
557,  1339.69,121
558,  1342.26,117
559,  1344.82,108
560,  1347.39,104
561,  1349.95,73
562,  1352.52,88
563,  1355.08,85
564,  1357.65,60
565,  1360.21,69
566,  1362.77,52
567,  1365.34,51
568,  1367.90,50
569,  1370.47,50
570,  1373.03,43
571,  1375.60,28
572,  1378.16,25
573,  1380.73,33
574,  1383.29,22
575,  1385.85,17
576,  1388.42,21
577,  1390.98,25
578,  1393.55,17
579,  1396.11,14
580,  1398.68,16
581,  1401.24,12
582,  1403.81,11
583,  1406.37,15
584,  1408.94,8
585,  1411.50,11
586,  1414.06,9
587,  1416.63,8
588,  1419.19,12
589,  1421.76,13
590,  1424.32,7
591,  1426.89,10
592,  1429.45,11
593,  1432.02,9
594,  1434.58,8
595,  1437.15,7
596,  1439.71,8
597,  1442.27,9
598,  1444.84,7
599,  1447.40,6
600,  1449.97,4
601,  1452.53,6
602,  1455.10,8
603,  1457.66,6
604,  1460.23,2
605,  1462.79,4
606,  1465.35,9
607,  1467.92,3
608,  1470.48,2
609,  1473.05,7
610,  1475.61,5
611,  1478.18,6
612,  1480.74,10
613,  1483.31,9
614,  1485.87,4
615,  1488.44,5
616,  1491.00,5
617,  1493.56,5
618,  1496.13,6
619,  1498.69,6
620,  1501.26,7
621,  1503.82,1
622,  1506.39,5
623,  1508.95,4
624,  1511.52,4
625,  1514.08,3
626,  1516.65,6
627,  1519.21,8
628,  1521.77,1
629,  1524.34,2
630,  1526.90,5
631,  1529.47,8
632,  1532.03,2
633,  1534.60,3
634,  1537.16,5
635,  1539.73,3
636,  1542.29,6
637,  1544.85,0
638,  1547.42,4
639,  1549.98,4
640,  1552.55,2
641,  1555.11,6
642,  1557.68,2
643,  1560.24,6
644,  1562.81,5
645,  1565.37,4
646,  1567.94,3
647,  1570.50,3
648,  1573.06,4
649,  1575.63,4
650,  1578.19,4
651,  1580.76,1
652,  1583.32,1
653,  1585.89,6
654,  1588.45,5
655,  1591.02,2
656,  1593.58,3
657,  1596.15,4
658,  1598.71,4
659,  1601.27,4
660,  1603.84,7
661,  1606.40,4
662,  1608.97,2
663,  1611.53,2
664,  1614.10,7
665,  1616.66,2
666,  1619.23,2
667,  1621.79,5
668,  1624.35,1
669,  1626.92,2
670,  1629.48,4
671,  1632.05,4
672,  1634.61,5
673,  1637.18,3
674,  1639.74,2
675,  1642.31,5
676,  1644.87,1
677,  1647.44,3
678,  1650.00,7
679,  1652.56,3
680,  1655.13,1
681,  1657.69,1
682,  1660.26,4
683,  1662.82,4
684,  1665.39,5
685,  1667.95,6
686,  1670.52,4
687,  1673.08,1
688,  1675.65,3
689,  1678.21,3
690,  1680.77,3
691,  1683.34,5
692,  1685.90,3
693,  1688.47,1
694,  1691.03,2
695,  1693.60,2
696,  1696.16,5
697,  1698.73,4
698,  1701.29,2
699,  1703.85,5
700,  1706.42,3
701,  1708.98,0
702,  1711.55,4
703,  1714.11,2
704,  1716.68,0
705,  1719.24,2
706,  1721.81,2
707,  1724.37,3
708,  1726.94,6
709,  1729.50,1
710,  1732.06,4
711,  1734.63,3
712,  1737.19,4
713,  1739.76,4
714,  1742.32,3
715,  1744.89,2
716,  1747.45,4
717,  1750.02,3
718,  1752.58,2
719,  1755.15,5
720,  1757.71,1
721,  1760.27,7
722,  1762.84,5
723,  1765.40,4
724,  1767.97,3
725,  1770.53,1
726,  1773.10,3
727,  1775.66,3
728,  1778.23,2
729,  1780.79,1
730,  1783.35,1
731,  1785.92,3
732,  1788.48,3
733,  1791.05,1
734,  1793.61,4
735,  1796.18,4
736,  1798.74,4
737,  1801.31,2
738,  1803.87,2
739,  1806.44,3
740,  1809.00,3
741,  1811.56,4
742,  1814.13,3
743,  1816.69,2
744,  1819.26,0
745,  1821.82,9
746,  1824.39,3
747,  1826.95,4
748,  1829.52,2
749,  1832.08,2
750,  1834.65,4
751,  1837.21,2
752,  1839.77,4
753,  1842.34,2
754,  1844.90,4
755,  1847.47,2
756,  1850.03,3
757,  1852.60,2
758,  1855.16,5
759,  1857.73,0
760,  1860.29,2
761,  1862.85,3
762,  1865.42,3
763,  1867.98,9
764,  1870.55,3
765,  1873.11,3
766,  1875.68,3
767,  1878.24,0
768,  1880.81,1
769,  1883.37,4
770,  1885.94,3
771,  1888.50,2
772,  1891.06,5
773,  1893.63,1
774,  1896.19,2
775,  1898.76,2
776,  1901.32,2
777,  1903.89,2
778,  1906.45,1
779,  1909.02,2
780,  1911.58,5
781,  1914.15,0
782,  1916.71,0
783,  1919.27,3
784,  1921.84,3
785,  1924.40,0
786,  1926.97,1
787,  1929.53,3
788,  1932.10,4
789,  1934.66,4
790,  1937.23,5
791,  1939.79,0
792,  1942.35,2
793,  1944.92,1
794,  1947.48,2
795,  1950.05,3
796,  1952.61,4
797,  1955.18,2
798,  1957.74,4
799,  1960.31,3
800,  1962.87,2
801,  1965.44,0
802,  1968.00,0
803,  1970.56,0
804,  1973.13,2
805,  1975.69,2
806,  1978.26,4
807,  1980.82,1
808,  1983.39,3
809,  1985.95,2
810,  1988.52,3
811,  1991.08,2
812,  1993.65,2
813,  1996.21,4
814,  1998.77,3
815,  2001.34,1
816,  2003.90,3
817,  2006.47,2
818,  2009.03,2
819,  2011.60,1
820,  2014.16,5
821,  2016.73,4
822,  2019.29,1
823,  2021.85,0
824,  2024.42,2
825,  2026.98,1
826,  2029.55,2
827,  2032.11,0
828,  2034.68,3
829,  2037.24,2
830,  2039.81,0
831,  2042.37,3
832,  2044.94,4
833,  2047.50,1
834,  2050.06,3
835,  2052.63,3
836,  2055.19,2
837,  2057.76,2
838,  2060.32,3
839,  2062.89,2
840,  2065.45,2
841,  2068.02,3
842,  2070.58,0
843,  2073.15,1
844,  2075.71,0
845,  2078.27,4
846,  2080.84,2
847,  2083.40,2
848,  2085.97,2
849,  2088.53,3
850,  2091.10,1
851,  2093.66,2
852,  2096.23,5
853,  2098.79,5
854,  2101.35,4
855,  2103.92,3
856,  2106.48,4
857,  2109.05,0
858,  2111.61,4
859,  2114.18,1
860,  2116.74,5
861,  2119.31,1
862,  2121.87,3
863,  2124.44,1
864,  2127.00,2
865,  2129.56,2
866,  2132.13,1
867,  2134.69,1
868,  2137.26,0
869,  2139.82,2
870,  2142.39,1
871,  2144.95,1
872,  2147.52,1
873,  2150.08,2
874,  2152.65,6
875,  2155.21,2
876,  2157.77,3
877,  2160.34,3
878,  2162.90,1
879,  2165.47,2
880,  2168.03,3
881,  2170.60,7
882,  2173.16,2
883,  2175.73,0
884,  2178.29,3
885,  2180.85,1
886,  2183.42,0
887,  2185.98,2
888,  2188.55,1
889,  2191.11,0
890,  2193.68,1
891,  2196.24,1
892,  2198.81,4
893,  2201.37,2
894,  2203.94,1
895,  2206.50,1
896,  2209.06,0
897,  2211.63,0
898,  2214.19,2
899,  2216.76,1
900,  2219.32,3
901,  2221.89,3
902,  2224.45,3
903,  2227.02,2
904,  2229.58,2
905,  2232.15,0
906,  2234.71,1
907,  2237.27,0
908,  2239.84,1
909,  2242.40,1
910,  2244.97,0
911,  2247.53,1
912,  2250.10,0
913,  2252.66,0
914,  2255.23,0
915,  2257.79,0
916,  2260.35,1
917,  2262.92,0
918,  2265.48,0
919,  2268.05,1
920,  2270.61,0
921,  2273.18,0
922,  2275.74,0
923,  2278.31,1
924,  2280.87,0
925,  2283.44,0
926,  2286.00,0
927,  2288.56,0
928,  2291.13,0
929,  2293.69,0
930,  2296.26,0
931,  2298.82,0
932,  2301.39,2
933,  2303.95,0
934,  2306.52,1
935,  2309.08,0
936,  2311.65,2
937,  2314.21,0
938,  2316.77,0
939,  2319.34,1
940,  2321.90,0
941,  2324.47,1
942,  2327.03,1
943,  2329.60,0
944,  2332.16,2
945,  2334.73,0
946,  2337.29,0
947,  2339.85,2
948,  2342.42,0
949,  2344.98,3
950,  2347.55,0
951,  2350.11,2
952,  2352.68,1
953,  2355.24,0
954,  2357.81,2
955,  2360.37,0
956,  2362.94,1
957,  2365.50,4
958,  2368.06,2
959,  2370.63,1
960,  2373.19,1
961,  2375.76,1
962,  2378.32,1
963,  2380.89,1
964,  2383.45,2
965,  2386.02,2
966,  2388.58,0
967,  2391.15,3
968,  2393.71,3
969,  2396.27,3
970,  2398.84,2
971,  2401.40,5
972,  2403.97,1
973,  2406.53,1
974,  2409.10,2
975,  2411.66,2
976,  2414.23,1
977,  2416.79,2
978,  2419.35,1
979,  2421.92,4
980,  2424.48,3
981,  2427.05,4
982,  2429.61,0
983,  2432.18,3
984,  2434.74,2
985,  2437.31,0
986,  2439.87,1
987,  2442.44,1
988,  2445.00,1
989,  2447.56,0
990,  2450.13,2
991,  2452.69,2
992,  2455.26,0
993,  2457.82,2
994,  2460.39,1
995,  2462.95,0
996,  2465.52,0
997,  2468.08,0
998,  2470.65,1
999,  2473.21,0
1000,  2475.77,1
1001,  2478.34,0
1002,  2480.90,0
1003,  2483.47,0
1004,  2486.03,0
1005,  2488.60,1
1006,  2491.16,0
1007,  2493.73,1
1008,  2496.29,0
1009,  2498.85,0
1010,  2501.42,0
1011,  2503.98,0
1012,  2506.55,0
1013,  2509.11,0
1014,  2511.68,0
1015,  2514.24,0
1016,  2516.81,0
1017,  2519.37,0
1018,  2521.94,0
1019,  2524.50,0
1020,  2527.06,1
1021,  2529.63,0
1022,  2532.19,0
1023,  2534.76,0
